# Energy [keV] | B0 events/(t.y.keV)]
0.0441 -0.139
0.0831 -0.058
0.1221 0.025
0.1611 0.111
0.2001 0.202
0.2391 0.299
0.2782 0.404
0.3172 0.52
0.3562 0.65
0.3952 0.798
0.4342 0.968
0.4732 1.162
0.5122 1.384
0.5513 1.64
0.5903 1.933
0.6293 2.274
0.6683 2.671
0.7073 3.144
0.7463 3.714
0.7853 4.407
0.8244 5.24
0.8634 6.213
0.9024 7.3
0.9414 8.464
0.9804 9.665
1.0194 10.895
1.0584 12.192
1.0975 13.648
1.1365 15.53
1.1755 17.658
1.2145 19.418
1.2535 21.217
1.2925 23.569
1.3315 26.322
1.3706 28.407
1.4096 29.99
1.4486 31.437
1.4876 32.946
1.5266 34.891
1.5656 37.928
1.6046 39.85
1.6437 41.42
1.6827 42.944
1.7217 44.659
1.7607 46.657
1.7997 48.262
1.8387 49.682
1.8777 51.082
1.9168 52.521
1.9558 53.878
1.9948 55.05
2.0338 56.045
2.0728 56.903
2.1118 57.649
2.1509 58.296
2.1899 58.854
2.2289 59.331
2.2679 59.739
2.3069 60.095
2.3459 60.411
2.3849 60.697
2.424 60.96
2.463 61.208
2.502 61.447
2.541 61.679
2.58 61.904
2.619 62.118
2.658 62.32
2.6971 62.508
2.7361 62.68
2.7751 62.837
2.8141 62.979
2.8531 63.107
2.8921 63.222
2.9311 63.325
2.9702 63.418
3.0092 63.504
3.0482 63.584
3.0872 63.659
3.1262 63.73
3.1652 63.798
3.2042 63.863
3.2433 63.926
3.2823 63.988
3.3213 64.049
3.3603 64.11
3.3993 64.17
3.4383 64.231
3.4773 64.291
3.5164 64.351
3.5554 64.411
3.5944 64.47
3.6334 64.529
3.6724 64.586
3.7114 64.643
3.7504 64.699
3.7895 64.753
3.8285 64.806
3.8675 64.858
3.9065 64.907
3.9455 64.955
3.9845 65.001
4.0235 65.044
4.0626 65.085
4.1016 65.124
4.1406 65.159
4.1796 65.191
4.2186 65.219
4.2576 65.244
4.2966 65.267
4.3357 65.286
4.3747 65.304
4.4137 65.319
4.4527 65.333
4.4917 65.345
4.5307 65.357
4.5697 65.368
4.6088 65.379
4.6478 65.391
4.6868 65.404
4.7258 65.419
4.7648 65.435
4.8038 65.454
4.8429 65.476
4.8819 65.501
4.9209 65.529
4.9599 65.559
4.9989 65.591
5.0379 65.625
5.0769 65.66
5.116 65.695
5.155 65.729
5.194 65.764
5.233 65.797
5.272 65.83
5.311 65.861
5.35 65.89
5.3891 65.916
5.4281 65.941
5.4671 65.963
5.5061 65.982
5.5451 65.998
5.5841 66.011
5.6231 66.02
5.6622 66.027
5.7012 66.031
5.7402 66.032
5.7792 66.032
5.8182 66.03
5.8572 66.026
5.8962 66.022
5.9353 66.016
5.9743 66.009
6.0133 66.001
6.0523 65.994
6.0913 65.985
6.1303 65.977
6.1693 65.969
6.2084 65.962
6.2474 65.955
6.2864 65.949
6.3254 65.944
6.3644 65.94
6.4034 65.937
6.4424 65.937
6.4815 65.938
6.5205 65.942
6.5595 65.948
6.5985 65.956
6.6375 65.966
6.6765 65.978
6.7155 65.992
6.7546 66.008
6.7936 66.026
6.8326 66.045
6.8716 66.065
6.9106 66.087
6.9496 66.109
6.9886 66.133
7.0277 66.157
7.0667 66.182
7.1057 66.206
7.1447 66.23
7.1837 66.253
7.2227 66.275
7.2617 66.295
7.3008 66.313
7.3398 66.33
7.3788 66.346
7.4178 66.359
7.4568 66.371
7.4958 66.38
7.5349 66.388
7.5739 66.393
7.6129 66.397
7.6519 66.403
7.6909 66.412
7.7299 66.428
7.7689 66.449
7.808 66.476
7.847 66.508
7.886 66.543
7.925 66.58
7.964 66.62
8.003 66.66
8.042 66.701
8.0811 66.743
8.1201 66.785
8.1591 66.826
8.1981 66.867
8.2371 66.907
8.2761 66.947
8.3151 66.986
8.3542 67.023
8.3932 67.059
8.4322 67.094
8.4712 67.126
8.5102 67.156
8.5492 67.184
8.5882 67.208
8.6273 67.231
8.6663 67.251
8.7053 67.27
8.7443 67.288
8.7833 67.306
8.8223 67.323
8.8613 67.342
8.9004 67.362
8.9394 67.385
8.9784 67.411
9.0174 67.442
9.0564 67.478
9.0954 67.518
9.1344 67.563
9.1735 67.611
9.2125 67.661
9.2515 67.712
9.2905 67.763
9.3295 67.814
9.3685 67.863
9.4075 67.909
9.4466 67.95
9.4856 67.984
9.5246 68.01
9.5636 68.027
9.6026 68.036
9.6416 68.037
9.6806 68.033
9.7197 68.025
9.7587 68.014
9.7977 68.002
9.8367 67.991
9.8757 67.981
9.9147 67.974
9.9537 67.968
9.9928 67.963
10.0318 67.957
10.0708 67.95
10.1098 67.941
10.1488 67.931
10.1878 67.918
10.2269 67.902
10.2659 67.883
10.3049 67.86
10.3439 67.833
10.3829 67.802
10.4219 67.768
10.4609 67.73
10.5 67.691
10.539 67.65
10.578 67.609
10.617 67.569
10.656 67.531
10.695 67.494
10.734 67.46
10.7731 67.431
10.8121 67.406
10.8511 67.387
10.8901 67.375
10.9291 67.37
10.9681 67.37
11.0071 67.376
11.0462 67.385
11.0852 67.395
11.1242 67.406
11.1632 67.415
11.2022 67.422
11.2412 67.422
11.2802 67.414
11.3193 67.396
11.3583 67.362
11.3973 67.313
11.4363 67.251
11.4753 67.182
11.5143 67.11
11.5533 67.039
11.5924 66.974
11.6314 66.916
11.6704 66.867
11.7094 66.828
11.7484 66.798
11.7874 66.777
11.8264 66.765
11.8655 66.76
11.9045 66.761
11.9435 66.766
11.9825 66.775
12.0215 66.786
12.0605 66.8
12.0995 66.815
12.1386 66.832
12.1776 66.85
12.2166 66.869
12.2556 66.888
12.2946 66.907
12.3336 66.925
12.3726 66.943
12.4117 66.959
12.4507 66.975
12.4897 66.988
12.5287 66.999
12.5677 67.006
12.6067 67.011
12.6457 67.012
12.6848 67.01
12.7238 67.006
12.7628 67
12.8018 66.993
12.8408 66.985
12.8798 66.977
12.9189 66.969
12.9579 66.962
12.9969 66.954
13.0359 66.948
13.0749 66.942
13.1139 66.937
13.1529 66.933
13.192 66.929
13.231 66.927
13.27 66.924
13.309 66.923
13.348 66.923
13.387 66.923
13.426 66.923
13.4651 66.925
13.5041 66.927
13.5431 66.929
13.5821 66.932
13.6211 66.936
13.6601 66.939
13.6991 66.943
13.7382 66.948
13.7772 66.953
13.8162 66.958
13.8552 66.963
13.8942 66.968
13.9332 66.974
13.9722 66.98
14.0113 66.986
14.0503 66.992
14.0893 66.998
14.1283 67.005
14.1673 67.011
14.2063 67.017
14.2453 67.024
14.2844 67.031
14.3234 67.037
14.3624 67.044
14.4014 67.051
14.4404 67.058
14.4794 67.065
14.5184 67.072
14.5575 67.079
14.5965 67.086
14.6355 67.093
14.6745 67.099
14.7135 67.106
14.7525 67.113
14.7915 67.12
14.8306 67.127
14.8696 67.134
14.9086 67.14
14.9476 67.147
14.9866 67.153
15.0256 67.16
15.0646 67.166
15.1037 67.172
15.1427 67.179
15.1817 67.185
15.2207 67.19
15.2597 67.196
15.2987 67.201
15.3378 67.207
15.3768 67.212
15.4158 67.216
15.4548 67.221
15.4938 67.225
15.5328 67.229
15.5718 67.232
15.6109 67.235
15.6499 67.237
15.6889 67.239
15.7279 67.241
15.7669 67.241
15.8059 67.242
15.8449 67.241
15.884 67.24
15.923 67.239
15.962 67.236
16.001 67.233
16.04 67.23
16.079 67.225
16.118 67.22
16.1571 67.215
16.1961 67.208
16.2351 67.201
16.2741 67.194
16.3131 67.186
16.3521 67.179
16.3911 67.172
16.4302 67.165
16.4692 67.16
16.5082 67.157
16.5472 67.156
16.5862 67.159
16.6252 67.164
16.6642 67.172
16.7033 67.181
16.7423 67.193
16.7813 67.206
16.8203 67.219
16.8593 67.234
16.8983 67.248
16.9373 67.263
16.9764 67.277
17.0154 67.292
17.0544 67.306
17.0934 67.32
17.1324 67.334
17.1714 67.347
17.2104 67.36
17.2495 67.373
17.2885 67.385
17.3275 67.397
17.3665 67.409
17.4055 67.42
17.4445 67.431
17.4835 67.441
17.5226 67.452
17.5616 67.461
17.6006 67.471
17.6396 67.48
17.6786 67.489
17.7176 67.498
17.7566 67.506
17.7957 67.515
17.8347 67.523
17.8737 67.531
17.9127 67.539
17.9517 67.546
17.9907 67.554
18.0298 67.562
18.0688 67.569
18.1078 67.576
18.1468 67.583
18.1858 67.59
18.2248 67.597
18.2638 67.604
18.3029 67.611
18.3419 67.618
18.3809 67.624
18.4199 67.631
18.4589 67.637
18.4979 67.644
18.5369 67.65
18.576 67.657
18.615 67.663
18.654 67.669
18.693 67.676
18.732 67.682
18.771 67.688
18.81 67.694
18.8491 67.7
18.8881 67.706
18.9271 67.712
18.9661 67.718
19.0051 67.724
19.0441 67.73
19.0831 67.736
19.1222 67.742
19.1612 67.748
19.2002 67.754
19.2392 67.76
19.2782 67.766
19.3172 67.772
19.3562 67.778
19.3953 67.784
19.4343 67.79
19.4733 67.796
19.5123 67.802
19.5513 67.807
19.5903 67.813
19.6293 67.819
19.6684 67.825
19.7074 67.831
19.7464 67.837
19.7854 67.843
19.8244 67.849
19.8634 67.855
19.9024 67.862
19.9415 67.868
19.9805 67.874
20.0195 67.88
20.0585 67.886
20.0975 67.892
20.1365 67.899
20.1755 67.905
20.2146 67.911
20.2536 67.918
20.2926 67.924
20.3316 67.93
20.3706 67.937
20.4096 67.943
20.4486 67.95
20.4877 67.956
20.5267 67.963
20.5657 67.969
20.6047 67.976
20.6437 67.982
20.6827 67.989
20.7218 67.996
20.7608 68.002
20.7998 68.009
20.8388 68.016
20.8778 68.022
20.9168 68.029
20.9558 68.036
20.9949 68.043
21.0339 68.05
21.0729 68.057
21.1119 68.063
21.1509 68.07
21.1899 68.077
21.2289 68.084
21.268 68.091
21.307 68.098
21.346 68.105
21.385 68.112
21.424 68.12
21.463 68.127
21.502 68.134
21.5411 68.141
21.5801 68.148
21.6191 68.155
21.6581 68.163
21.6971 68.17
21.7361 68.177
21.7751 68.184
21.8142 68.191
21.8532 68.198
21.8922 68.205
21.9312 68.212
21.9702 68.219
22.0092 68.226
22.0482 68.232
22.0873 68.239
22.1263 68.245
22.1653 68.251
22.2043 68.256
22.2433 68.262
22.2823 68.267
22.3213 68.272
22.3604 68.276
22.3994 68.28
22.4384 68.284
22.4774 68.287
22.5164 68.29
22.5554 68.293
22.5944 68.295
22.6335 68.297
22.6725 68.299
22.7115 68.3
22.7505 68.301
22.7895 68.302
22.8285 68.302
22.8675 68.303
22.9066 68.303
22.9456 68.303
22.9846 68.304
23.0236 68.304
23.0626 68.305
23.1016 68.305
23.1406 68.306
23.1797 68.307
23.2187 68.308
23.2577 68.309
23.2967 68.31
23.3357 68.312
23.3747 68.314
23.4138 68.316
23.4528 68.318
23.4918 68.321
23.5308 68.324
23.5698 68.327
23.6088 68.331
23.6478 68.334
23.6869 68.339
23.7259 68.343
23.7649 68.348
23.8039 68.354
23.8429 68.359
23.8819 68.365
23.9209 68.372
23.96 68.379
23.999 68.386
24.038 68.393
24.077 68.401
24.116 68.409
24.155 68.418
24.194 68.427
24.2331 68.436
24.2721 68.445
24.3111 68.454
24.3501 68.464
24.3891 68.473
24.4281 68.483
24.4671 68.493
24.5062 68.503
24.5452 68.513
24.5842 68.524
24.6232 68.534
24.6622 68.544
24.7012 68.555
24.7402 68.565
24.7793 68.576
24.8183 68.586
24.8573 68.596
24.8963 68.607
24.9353 68.617
24.9743 68.628
25.0133 68.638
25.0524 68.648
25.0914 68.658
25.1304 68.668
25.1694 68.677
25.2084 68.687
25.2474 68.696
25.2864 68.705
25.3255 68.714
25.3645 68.723
25.4035 68.731
25.4425 68.739
25.4815 68.747
25.5205 68.754
25.5595 68.761
25.5986 68.767
25.6376 68.773
25.6766 68.779
25.7156 68.784
25.7546 68.789
25.7936 68.793
25.8326 68.797
25.8717 68.801
25.9107 68.804
25.9497 68.808
25.9887 68.811
26.0277 68.814
26.0667 68.817
26.1058 68.819
26.1448 68.822
26.1838 68.825
26.2228 68.828
26.2618 68.831
26.3008 68.834
26.3398 68.838
26.3789 68.842
26.4179 68.846
26.4569 68.851
26.4959 68.856
26.5349 68.861
26.5739 68.867
26.6129 68.873
26.652 68.881
26.691 68.888
26.73 68.896
26.769 68.905
26.808 68.915
26.847 68.925
26.886 68.935
26.9251 68.947
26.9641 68.958
27.0031 68.97
27.0421 68.982
27.0811 68.994
27.1201 69.007
27.1591 69.019
27.1982 69.032
27.2372 69.045
27.2762 69.058
27.3152 69.071
27.3542 69.084
27.3932 69.096
27.4322 69.109
27.4713 69.122
27.5103 69.134
27.5493 69.146
27.5883 69.158
27.6273 69.17
27.6663 69.181
27.7053 69.192
27.7444 69.203
27.7834 69.213
27.8224 69.223
27.8614 69.232
27.9004 69.241
27.9394 69.249
27.9784 69.257
28.0175 69.264
28.0565 69.27
28.0955 69.276
28.1345 69.28
28.1735 69.284
28.2125 69.287
28.2515 69.289
28.2906 69.29
28.3296 69.291
28.3686 69.29
28.4076 69.289
28.4466 69.287
28.4856 69.284
28.5247 69.28
28.5637 69.276
28.6027 69.271
28.6417 69.266
28.6807 69.26
28.7197 69.253
28.7587 69.246
28.7978 69.239
28.8368 69.231
28.8758 69.223
28.9148 69.215
28.9538 69.207
28.9928 69.198
29.0318 69.19
29.0709 69.181
29.1099 69.173
29.1489 69.165
29.1879 69.158
29.2269 69.151
29.2659 69.145
29.3049 69.141
29.344 69.137
29.383 69.136
29.422 69.136
29.461 69.139
29.5 69.145
29.539 69.153
29.578 69.165
29.6171 69.18
29.6561 69.199
29.6951 69.221
29.7341 69.248
29.7731 69.279
29.8121 69.313
29.8511 69.352
29.8902 69.393
29.9292 69.435
